Black Body Radiation Experiment Wed, Jan 24, 2024 4:26 PM
Sensor Position (Degrees)	Light Intensity (Volts)
0.00000	0.00624
0.00000	0.00608
0.00000	0.00399
0.00000	0.00318
0.00000	0.00463
0.00000	0.00527
0.00000	0.00672
0.00000	0.00431
0.00000	0.00689
0.00000	0.00044
0.00000	0.00527
0.00000	0.00173
0.00000	0.00801
0.00000	0.00640
0.00000	0.00125
0.00000	0.00511
0.00000	0.00640
0.00000	0.00737
0.00000	0.00399
0.00000	0.00672
0.00000	0.00366
0.00000	0.00415
0.00000	0.00431
0.00000	0.00109
0.00000	0.00302
0.00000	0.00689
0.00000	0.00640
0.00000	0.00060
0.00000	0.00366
0.00000	0.00173
0.00000	0.00415
0.00000	0.00576
0.00000	0.00286
0.00000	0.00656
0.00000	0.00689
0.00000	0.00495
0.00000	0.00383
0.00000	0.00302
0.00000	0.00415
0.00000	0.00383
0.00000	0.00334
0.00000	0.00721
0.00000	0.00012
0.00000	0.00189
0.00000	0.00592
0.00000	0.00463
0.00000	0.00511
0.00000	0.00060
0.00000	0.00350
0.00000	0.00689
0.00000	-0.00020
0.00000	0.00544
0.00000	0.00544
0.00000	0.00479
0.00000	0.00737
0.00000	0.00479
0.00000	0.00656
0.00000	0.00302
0.00000	0.00350
0.00000	0.00157
0.00000	0.00527
0.00000	0.00157
0.00000	0.00624
0.00000	0.00221
0.00000	0.00592
0.00000	0.00157
0.00000	0.00656
0.00000	0.00383
0.00000	0.00173
0.00000	0.00576
0.00000	0.00560
0.00000	0.00415
0.00000	0.00157
0.00000	-0.00020
0.00000	0.00350
0.00000	0.00157
0.00000	-0.00069
0.00000	0.00608
0.00000	0.00495
0.00000	0.00205
0.00000	0.00286
0.00000	0.00495
0.00000	0.00576
0.02067	0.00479
0.04133	0.00221
0.05167	0.00383
0.07233	0.00672
0.08266	0.00431
0.08266	0.00495
0.08266	0.00898
0.09300	0.00221
0.09300	0.00576
0.10333	0.00447
0.11366	0.00012
0.15500	0.00060
0.17566	0.00721
0.18599	0.00656
0.21699	0.00656
0.23766	0.00286
0.25833	0.00415
0.30999	0.00431
0.35132	0.00302
0.37199	0.00592
0.41332	0.00592
0.45465	0.00044
0.47532	0.00527
0.50632	0.00431
0.53732	0.00270
0.54765	0.00431
0.57865	0.00560
0.59931	0.00447
0.59931	0.00447
0.61998	0.00399
0.64065	0.00383
0.67165	0.00334
0.68198	0.00286
0.72331	0.00463
0.75431	0.00334
0.77498	0.00447
0.82664	0.00834
0.86797	0.00125
0.88864	0.00592
0.95064	0.00173
0.99197	0.00495
1.01264	0.00254
1.06430	0.00399
1.08497	0.00544
1.09530	0.00125
1.12630	0.00254
1.14696	0.00672
1.15730	0.00238
1.18830	0.00254
1.21930	0.00302
1.22963	0.00221
1.27096	0.00399
1.32263	0.00592
1.34329	0.00721
1.40529	0.00511
1.43629	0.00318
1.45695	0.00189
1.54995	0.00672
1.59128	0.00383
1.61195	0.00544
1.69461	0.00318
1.77728	0.00205
1.81861	0.00383
1.93227	0.00721
2.01494	0.00286
2.04594	0.00431
2.12860	0.00093
2.20093	0.00189
2.22160	0.00415
2.32493	0.00495
2.38693	0.00334
2.41792	0.00318
2.53159	0.00254
2.58325	0.00608
2.61425	0.00527
2.69692	0.00431
2.76925	0.00383
2.80025	0.00415
2.87258	0.00012
2.94491	0.00511
2.97591	0.00399
3.03791	0.00093
3.05857	0.00399
3.06890	0.00431
3.08957	0.00415
3.09990	0.00560
3.11024	0.00028
3.14124	0.00350
3.17223	0.00399
3.19290	0.00318
3.22390	0.00463
3.22390	0.00447
3.22390	0.00544
3.22390	0.00109
3.23423	0.00753
3.23423	0.00479
3.23423	0.00544
3.23423	0.00624
3.23423	0.00592
3.23423	0.00383
3.23423	0.00028
3.23423	0.00254
3.23423	0.00366
3.23423	0.00624
3.23423	0.00544
3.23423	0.00527
3.23423	0.00495
3.23423	0.00608
3.24457	0.00463
3.28590	0.00383
3.39956	0.00399
3.50289	0.00350
3.54422	0.00479
3.66822	0.00334
3.74055	0.00511
3.77155	0.00012
3.84388	0.00399
3.89555	0.00560
3.92654	0.00205
3.98854	0.00415
4.02987	0.00254
4.06087	-0.00036
4.11254	0.00012
4.14354	0.00608
4.16420	-0.00101
4.20554	0.00318
4.24687	0.00270
4.26753	0.00157
4.32953	0.00157
4.37086	0.00334
4.39153	0.00431
4.50519	0.00479
4.58786	0.00350
4.62919	0.00286
4.76352	0.00157
4.83585	0.00415
4.89785	0.00415
5.03218	0.00576
5.09418	0.00495
5.12517	0.00544
5.19751	-0.00069
5.21817	-0.00036
5.22850	0.00495
5.24917	0.00415
5.28017	0.00479
5.30084	0.00431
5.38350	0.00753
5.46616	0.00608
5.52816	0.00769
5.64182	0.00399
5.71416	0.00624
5.75549	0.00399
5.86915	0.00302
5.94148	0.00656
5.98281	0.00350
6.08614	0.00286
6.15848	0.00479
6.19981	0.00302
6.31347	0.00060
6.40647	0.00608
6.45813	0.00125
6.59246	0.00318
6.71646	0.00286
6.75779	0.00882
6.89212	0.00350
6.97478	0.00672
7.00578	0.00914
7.12978	0.00785
7.19178	0.00608
7.27444	0.00431
7.42944	0.00415
7.53277	0.00447
7.57410	0.00415
7.76009	0.00495
7.85309	0.00383
7.91509	0.00463
8.07008	0.00415
8.14241	0.00350
8.17341	0.00544
8.26641	0.00785
8.28708	0.00495
8.29741	0.00076
8.33874	0.00350
8.35941	0.00270
8.36974	0.00044
8.40074	0.00286
8.42141	0.00254
8.42141	0.00383
8.42141	0.00221
8.42141	0.00221
8.42141	0.00527
8.42141	0.00431
8.42141	0.00576
8.42141	0.00640
8.43174	0.00560
8.43174	0.00576
8.45240	0.00157
8.47307	0.00479
8.52474	0.00302
8.55573	0.00125
8.56607	0.00511
8.58673	0.00447
8.59707	0.00672
8.59707	0.00286
8.61773	0.00721
8.63840	0.00431
8.65906	0.00689
8.69006	0.00592
8.79339	0.00447
8.86572	0.00479
8.91739	0.00173
9.08272	0.00672
9.19638	-0.00036
9.25838	0.00544
9.43404	0.00383
9.53737	0.00254
9.59937	0.00286
9.74403	0.00576
9.82669	0.00930
9.86803	0.00286
9.94036	0.00141
9.95069	0.00141
9.95069	0.00076
9.97136	-0.00278
10.01269	0.00753
10.05402	0.00721
10.10569	0.00173
10.16768	0.00125
10.24002	0.00463
10.27101	0.00157
10.37434	0.00254
10.45701	0.00318
10.49834	0.00511
10.65334	0.00463
10.74633	0.00527
10.78766	0.00431
10.90133	0.00560
10.97366	0.00463
11.02532	0.00753
11.10799	0.00334
11.15965	0.00028
11.16999	0.00656
11.21132	0.00560
11.23198	0.00463
11.24232	0.00511
11.27332	0.00560
11.31465	0.00383
11.32498	0.00028
11.43864	-0.00052
11.50064	0.00463
11.53164	0.00447
11.63497	0.00076
11.70730	0.00721
11.72797	0.00221
11.78997	0.00109
11.83130	0.00366
11.86230	0.00350
11.92430	0.00866
11.95530	0.00415
11.97596	0.00672
12.03796	0.00527
12.07929	0.00511
12.09996	0.00463
12.17229	0.00656
12.24462	0.00495
12.27562	0.00592
12.42028	0.00479
12.49261	0.00415
12.54428	0.00431
12.66827	0.00640
12.74060	0.00399
12.78194	0.00044
12.88527	0.00334
12.95760	0.00479
13.01960	0.00672
13.14359	0.00479
13.22626	0.00672
13.25725	0.00076
13.37092	0.00334
13.44325	0.00350
13.46392	0.00656
13.53625	0.00141
13.56725	-0.00004
13.57758	0.00624
13.60858	0.00592
13.63958	0.00511
13.64991	0.00383
13.72224	0.00463
13.75324	0.00350
13.76357	0.00383
13.80490	0.00270
13.81524	0.00431
13.82557	0.00640
13.85657	0.00431
13.89790	0.00576
13.90823	0.00672
13.98057	0.00334
14.01156	0.01059
14.03223	0.00238
14.13556	0.00850
14.19756	0.00705
14.21822	0.00479
14.30089	0.00495
14.37322	0.00576
14.40422	0.00254
14.49722	0.00431
14.56955	0.00141
14.60055	0.00173
14.70388	0.00205
14.78654	0.00511
14.83821	0.00334
14.93120	0.00560
15.00353	0.00672
15.04487	0.00431
15.12753	0.00221
15.15853	0.00608
15.17920	0.00221
15.21019	0.00173
15.21019	0.00254
15.22053	0.00238
15.24119	0.00302
15.29286	0.00350
15.31352	0.00544
15.38586	0.00270
15.42719	0.00463
15.44785	0.00592
15.50985	0.00270
15.57185	0.00576
15.59252	-0.00004
15.66485	0.00511
15.71651	0.00286
15.73718	0.00350
15.76818	0.00431
15.78884	0.00076
15.79918	0.00737
15.81984	0.00205
15.85084	0.00656
15.87151	0.00205
15.95417	0.00479
16.01617	0.00608
16.04717	0.00560
16.12983	0.00560
16.17116	0.00479
16.19183	0.00415
16.25383	0.00350
16.32616	0.00366
16.34683	0.00511
16.41916	0.00672
16.43982	0.00141
16.43982	0.00302
16.43982	0.00672
16.45016	0.00366
16.48115	0.00962
16.52249	0.00447
16.54315	0.00672
16.61548	0.00527
16.64648	0.00383
16.65682	0.00463
16.72915	0.00689
16.79115	0.00608
16.82214	0.00447
16.90481	0.00431
16.93581	0.00141
16.93581	0.00511
16.95647	0.00592
16.98747	0.00721
17.00814	0.00705
17.02880	0.00383
17.09080	0.00383
17.15280	0.00238
17.18380	0.00753
17.32846	0.00286
17.41113	0.00801
17.44212	0.00221
17.56612	0.00415
17.64879	0.00737
17.69012	0.00753
17.73145	0.00527
17.75212	0.00753
17.76245	0.00753
17.84511	0.00721
17.87611	0.00334
17.89678	0.00479
17.95878	0.00705
17.98977	0.00672
18.01044	0.00624
18.07244	0.00560
18.12410	0.00689
18.15510	0.00753
18.24810	0.00995
18.32043	0.00415
18.35143	0.00415
18.42376	0.00914
18.46509	0.00560
18.49609	0.00447
18.57876	0.00689
18.63042	0.00882
18.67175	0.00576
18.73375	0.00801
18.79575	0.00672
18.81642	0.00769
18.89908	0.01011
18.95074	0.00882
18.99208	0.00962
19.08507	0.00834
19.14707	0.01156
19.19874	0.01075
19.34340	0.00801
19.40540	0.01478
19.43640	0.00946
19.49839	0.01236
19.53973	0.01510
19.57073	0.01301
19.68439	0.01575
19.72572	0.01607
19.74639	0.01752
19.77739	0.01736
19.80838	0.02155
19.84972	0.02187
19.94271	0.02235
19.99438	0.02155
20.01504	0.02219
20.09771	0.02219
20.13904	0.02686
20.15971	0.02573
20.26304	0.03105
20.32504	0.03282
20.35603	0.03218
20.50070	0.03830
20.57303	0.03459
20.60403	0.03717
20.70736	0.04394
20.76935	0.04652
20.79002	0.04635
20.89335	0.05554
20.96568	0.05457
20.98635	0.05956
21.11034	0.07084
21.18268	0.07229
21.24467	0.07874
21.38934	0.09501
21.48233	0.10580
21.54433	0.11675
21.63733	0.13254
21.68899	0.14221
21.73032	0.14817
21.82332	0.17539
21.87499	0.18570
21.92665	0.19521
21.98865	0.22179
22.00932	0.23419
22.04032	0.24273
22.14365	0.26384
22.22631	0.27511
22.28831	0.29332
22.43297	0.32473
22.48463	0.33826
22.52597	0.35099
22.64996	0.37338
22.70163	0.38836
22.74296	0.39432
22.82562	0.41285
22.87729	0.41897
22.92895	0.42493
23.07362	0.42574
23.15628	0.42606
23.22861	0.42010
23.36294	0.41172
23.44560	0.39304
23.49727	0.38917
23.61093	0.36710
23.72460	0.35035
23.76593	0.33746
23.90026	0.30862
23.98292	0.28655
24.03459	0.27995
24.15858	0.24902
24.25158	0.22775
24.28258	0.21889
24.37558	0.18828
24.44791	0.17733
24.47891	0.16863
24.56157	0.14591
24.59257	0.13190
24.60290	0.13335
24.64423	0.11369
24.70623	0.10258
24.72690	0.10097
24.81990	0.08743
24.88189	0.07809
24.92323	0.07471
25.05755	0.06520
25.14022	0.05715
25.18155	0.05683
25.29521	0.04152
25.37788	0.03572
25.40888	0.03927
25.54321	0.03282
25.63620	0.02718
25.67754	0.02251
25.79120	0.01800
25.85320	0.02138
25.89453	0.01687
25.97719	0.01655
26.02886	0.01220
26.07019	0.01607
26.14252	0.01510
26.22519	0.01236
26.25618	0.01285
26.36985	0.01011
26.48351	0.01059
26.52484	0.00914
26.69017	0.01349
26.81417	0.01140
26.88650	0.00817
27.14482	0.00705
27.29982	0.00930
27.40315	0.00801
27.60981	0.00737
27.73381	0.00608
27.79580	0.00801
27.95080	0.00576
28.03346	0.01043
28.06446	0.00753
28.19879	0.00511
28.26079	0.00850
28.28145	0.00576
28.33312	0.00785
28.37445	0.00656
28.39512	0.00834
28.47778	0.00463
28.56045	0.00318
28.61211	0.00882
28.76711	0.00608
28.84977	0.01107
28.88077	0.00560
28.98410	0.00576
29.09776	0.00479
29.13909	0.00463
29.32509	0.00850
29.53175	0.00560
29.62475	0.00946
29.82107	0.00866
29.96574	0.00592
30.00707	0.00882