Black Body Radiation Experiment Wed, Jan 24, 2024 4:33 PM
Sensor Position (Degrees)	Light Intensity (Volts)
0.00000	0.01317
0.00000	0.01285
0.00000	0.01397
0.00000	0.01204
0.00000	0.01011
0.00000	0.01397
0.00000	0.01349
0.00000	0.01269
0.00000	0.01446
0.00000	0.01542
0.00000	0.01349
0.00000	0.01542
0.00000	0.01252
0.00000	0.01381
0.00000	0.01059
0.00000	0.01687
0.00000	0.01236
0.00000	0.00979
0.00000	0.01575
0.00000	0.01349
0.00000	0.01220
0.00000	0.01559
0.00000	0.01269
0.00000	0.01269
0.00000	0.01462
0.00000	0.01365
0.00000	0.01430
0.00000	0.01285
0.00000	0.01269
0.00000	0.01172
0.00000	0.01301
0.00000	0.01204
0.00000	0.01124
0.00000	0.01269
0.00000	0.01720
0.00000	0.01269
0.00000	0.01317
0.00000	0.01365
0.00000	0.01204
0.00000	0.01317
0.00000	0.01703
0.00000	0.01655
0.00000	0.01365
0.00000	0.01156
0.00000	0.01188
0.00000	0.01269
0.00000	0.00914
0.00000	0.01381
0.00000	0.01317
0.00000	0.01285
0.00000	0.01430
0.00000	0.01091
0.00000	0.01414
0.00000	0.01107
0.00000	0.01575
0.00000	0.01623
0.00000	0.01285
0.00000	0.01043
0.00000	0.01446
0.00000	0.01156
0.00000	0.01494
0.00000	0.01220
0.00000	0.01011
0.00000	0.01252
0.00000	0.00946
0.00000	0.01317
0.00000	0.01414
0.00000	0.01172
0.00000	0.01381
0.00000	0.01301
0.00000	0.01236
0.00000	0.01349
0.00000	0.01365
0.00000	0.01494
0.00000	0.01236
0.00000	0.01285
0.00000	0.01043
0.00000	0.01317
0.00000	0.01671
0.00000	0.01285
0.00000	0.01091
0.00000	0.01172
0.00000	0.01333
0.00000	0.01317
0.00000	0.01107
0.00000	0.01172
0.00000	0.01591
0.00000	0.01236
0.00000	0.01204
0.00000	0.01462
0.02067	0.01768
0.05167	0.01172
0.08266	0.01478
0.12400	0.00946
0.18599	0.00946
0.21699	0.01414
0.22733	0.01011
0.27899	0.01043
0.30999	0.01414
0.32032	0.01397
0.37199	0.01430
0.40299	0.00946
0.42365	0.01156
0.45465	0.01607
0.48565	0.01494
0.49598	0.01107
0.53732	0.01381
0.56832	0.01301
0.57865	0.01156
0.63031	0.01349
0.67165	0.01333
0.68198	0.01510
0.70264	0.01301
0.70264	0.01575
0.70264	0.01043
0.70264	0.00962
0.70264	0.01430
0.70264	0.01446
0.70264	0.01317
0.70264	0.01687
0.70264	0.00946
0.70264	0.01462
0.71298	0.01623
0.71298	0.01075
0.71298	0.01526
0.71298	0.01623
0.71298	0.01301
0.71298	0.01365
0.71298	0.01446
0.72331	0.01478
0.74398	0.01381
0.78531	0.01655
0.81631	0.01252
0.88864	0.00946
0.95064	0.01397
0.96097	0.00979
1.03330	0.01349
1.09530	0.01236
1.12630	0.01381
1.20896	0.01607
1.26063	0.01236
1.28129	0.01027
1.38462	0.00995
1.45695	0.01526
1.48795	0.01639
1.62228	0.01349
1.71528	0.01059
1.76695	0.01027
1.90127	0.01365
1.99427	0.01752
2.04594	0.01333
2.16993	0.01462
2.26293	0.01043
2.28360	0.01140
2.38693	0.01542
2.46959	0.01703
2.50059	0.01252
2.59359	0.01430
2.65558	0.01188
2.67625	0.01575
2.75891	0.01462
2.81058	0.01172
2.83125	0.01381
2.88291	0.01317
2.92424	0.01349
2.94491	0.01397
2.99657	0.01929
3.04824	0.01430
3.06890	0.01381
3.17223	0.01736
3.23423	0.01414
3.26523	0.01414
3.36856	0.01559
3.42023	0.01559
3.45123	0.01059
3.56489	0.00930
3.63722	0.00882
3.68889	0.01091
3.82321	0.01236
3.89555	0.01220
3.94721	0.01430
4.08154	0.01703
4.17454	0.01542
4.22620	0.01414
4.31920	0.01333
4.37086	0.01124
4.40186	0.01510
4.48453	0.01011
4.54653	0.01687
4.56719	0.01671
4.66019	0.01043
4.73252	0.00866
4.75319	0.01414
4.88751	0.01414
4.97018	0.01575
5.00118	0.01156
5.11484	0.01639
5.18717	0.01043
5.23884	0.01462
5.35250	0.01639
5.45583	0.01414
5.49716	0.01059
5.65216	0.01462
5.75549	0.01204
5.79682	0.01414
5.99315	0.01317
6.11714	0.00769
6.16881	0.01720
6.37547	0.01526
6.47880	0.01349
6.53046	0.01269
6.67513	0.01365
6.76812	0.01381
6.81979	0.01043
6.96445	0.01252
7.05745	0.01204
7.10911	0.01365
7.24344	0.01381
7.29511	0.01091
7.32611	0.01285
7.41910	0.01526
7.47077	0.01140
7.49143	0.00962
7.53277	0.01800
7.55343	0.01381
7.55343	0.01301
7.55343	0.01027
7.55343	0.01768
7.55343	0.01414
7.56377	0.01285
7.57410	0.01736
7.58443	0.01333
7.58443	0.01478
7.59476	0.01365
7.61543	0.01220
7.62576	0.01301
7.63610	0.01349
7.69809	0.01542
7.74976	0.01381
7.77043	0.01349
7.89442	0.01478
7.98742	0.01107
8.04942	0.01301
8.17341	0.01301
8.27674	0.01430
8.32841	0.01059
8.48340	0.01252
8.60740	0.01204
8.64873	0.01285
8.81406	0.01075
8.91739	0.00946
8.96905	0.01317
9.10338	0.01414
9.21705	0.01478
9.27905	0.01381
9.45471	0.01446
9.57870	0.01333
9.63037	0.01494
9.78536	0.01333
9.89903	0.01349
9.95069	0.01462
10.12635	0.00930
10.21935	0.01188
10.29168	0.01478
10.42601	0.01446
10.53967	0.01075
10.58100	0.01317
10.71533	0.01220
10.81866	0.01494
10.88066	0.01365
11.05632	0.01559
11.16999	0.01365
11.19065	0.01172
11.32498	0.01510
11.42831	0.01526
11.47998	0.01107
11.61431	0.01204
11.72797	0.01172
11.76930	0.01252
11.90363	0.01220
12.00696	0.01317
12.04829	0.01349
12.18262	0.01510
12.28595	0.01349
12.33762	0.01430
12.45128	0.01575
12.57528	0.01301
12.63727	0.01285
12.80260	0.01478
12.90593	0.00995
12.92660	0.01494
13.09193	0.01784
13.19526	0.01285
13.21592	0.01446
13.29859	0.01655
13.37092	0.01301
13.39158	0.01107
13.44325	0.01671
13.47425	0.01204
13.48458	0.01349
13.50525	0.01381
13.52591	0.01800
13.53625	0.01220
13.55691	0.01462
13.57758	0.01526
13.58791	0.01430
13.61891	0.01542
13.66024	0.01462
13.68091	0.01140
13.75324	0.01703
13.80490	0.01252
13.82557	0.01301
13.91857	0.01800
13.99090	0.01317
14.03223	0.01349
14.13556	0.01671
14.20789	0.01526
14.23889	0.01607
14.32156	0.01269
14.36289	0.01285
14.37322	0.01720
14.41455	0.01172
14.42489	0.01365
14.42489	0.00962
14.42489	0.01349
14.42489	0.01414
14.43522	0.01446
14.43522	0.01671
14.43522	0.01124
14.43522	0.01575
14.44555	0.01559
14.46622	0.01397
14.48688	0.01494
14.49722	0.01510
14.56955	0.01575
14.61088	0.01317
14.63155	0.01365
14.69354	0.01575
14.74521	0.01381
14.77621	0.01027
14.84854	0.01430
14.88987	0.01671
14.91054	0.01510
14.97253	0.01301
15.02420	0.01494
15.04487	0.01478
15.11720	0.01349
15.18953	0.01365
15.22053	0.01252
15.30319	0.01301
15.38586	0.01107
15.42719	0.01059
15.56152	0.01575
15.65451	0.01107
15.70618	0.01591
15.86117	0.01156
15.98517	0.01736
16.04717	0.01494
16.25383	0.01381
16.38816	0.01381
16.47082	0.01559
16.66715	0.01671
16.79115	0.01317
16.86348	0.01510
17.03914	0.01542
17.14247	0.01832
17.21480	0.01607
17.35946	0.01913
17.43179	0.01494
17.49379	0.01687
17.60745	0.01478
17.71078	0.01848
17.74178	0.01961
17.85545	0.02171
17.93811	0.01945
18.02077	0.02332
18.17577	0.02090
18.24810	0.02461
18.31010	0.02348
18.45476	0.02283
18.52709	0.02348
18.54776	0.02493
18.60976	0.02445
18.65109	0.02976
18.67175	0.02606
18.72342	0.02300
18.74408	0.02847
18.75442	0.02783
18.79575	0.02863
18.82675	0.02670
18.84741	0.03314
18.89908	0.02976
18.91975	0.02815
18.96108	0.03459
19.03341	0.03057
19.08507	0.03411
19.13674	0.03588
19.21940	0.03991
19.26073	0.03508
19.30207	0.03637
19.40540	0.04345
19.47773	0.04152
19.50873	0.04120
19.64306	0.04555
19.72572	0.05215
19.75672	0.05199
19.90138	0.05924
19.95305	0.06021
19.96338	0.05940
20.03571	0.06536
20.06671	0.07181
20.07704	0.06826
20.10804	0.07696
20.13904	0.08035
20.15971	0.07825
20.24237	0.08598
20.30437	0.08905
20.32504	0.09146
20.46970	0.09855
20.57303	0.10516
20.65569	0.11112
20.85202	0.12626
20.93468	0.14172
21.04835	0.15767
21.25501	0.18844
21.35834	0.21615
21.47200	0.23355
21.68899	0.29380
21.79232	0.32876
21.89565	0.35759
22.13331	0.43943
22.25731	0.49292
22.37097	0.53319
22.57763	0.59972
22.69130	0.62196
22.78429	0.63758
22.99095	0.65933
23.10462	0.65353
23.15628	0.65224
23.38361	0.61519
23.48694	0.59086
23.53860	0.57492
23.69360	0.53287
23.81759	0.49469
23.86926	0.47455
24.03459	0.42219
24.14825	0.38933
24.19991	0.37258
24.35491	0.32280
24.45824	0.29187
24.50991	0.27640
24.60290	0.23001
24.67523	0.20713
24.72690	0.19730
24.83023	0.16444
24.89223	0.14720
24.93356	0.13399
25.03689	0.11418
25.11955	0.09710
25.15055	0.09484
25.22288	0.07906
25.31588	0.06536
25.34688	0.06907
25.49154	0.05602
25.57421	0.05070
25.59487	0.04974
25.71887	0.04378
25.78087	0.04120
25.81186	0.03685
25.90486	0.03556
25.96686	0.03411
25.98753	0.03266
26.05986	0.03186
26.10119	0.02847
26.11152	0.02300
26.15285	0.02251
26.18385	0.02590
26.19419	0.02348
26.22519	0.02364
26.25618	0.02428
26.26652	0.02171
26.30785	0.02187
26.32852	0.01720
26.34918	0.01784
26.41118	0.01784
26.45251	0.02058
26.47318	0.01800
26.55584	0.02058
26.60751	0.01977
26.62817	0.01993
26.69017	0.01559
26.72117	0.02074
26.73150	0.01945
26.79350	0.02090
26.84517	0.01945
26.85550	0.01575
26.87617	0.01510
26.89683	0.01881
26.90716	0.01478
26.92783	0.01687
26.95883	0.01929
26.97950	0.01526
27.02083	0.01720
27.05183	0.01381
27.06216	0.01784
27.12416	0.01542
27.17582	0.01687
27.19649	0.01252
27.27915	0.01881
27.34115	0.01816
27.37215	0.02026
27.49615	0.01655
27.56848	0.01752
27.60981	0.01559
27.71314	0.01832
27.78547	0.01285
27.81647	0.01703
27.88880	0.01542
27.95080	0.01881
27.98180	0.01671
28.05413	0.01172
28.11613	0.01784
28.13679	0.01107
28.21946	0.01349
28.28145	0.01575
28.32279	0.01526
28.43645	0.01462
28.51911	0.01462
28.57078	0.01510
28.72577	0.01655
28.81877	0.01446
28.86010	0.01865
29.01510	0.01720
29.09776	0.01639
29.15976	0.01510
29.27342	0.01720
29.37675	0.01752
29.41809	0.01575
29.52142	0.01252
29.59375	0.01059
29.62475	0.01816
29.72808	0.01800
29.79007	0.01575
29.81074	0.01510
29.92440	0.01720
30.01740	0.01800