Black Body Radiation Experiment Wed, Jan 24, 2024 4:14 PM
Sensor Position (Degrees)	Light Intensity (Volts)
0.00000	-0.00342
0.00000	-0.00938
0.00000	-0.00616
0.00000	-0.00745
0.00000	-0.00616
0.00000	-0.00987
0.00000	-0.00971
0.00000	-0.00826
0.00000	-0.00616
0.00000	-0.00520
0.00000	-0.00375
0.00000	-0.00214
0.00000	-0.00874
0.00000	-0.00729
0.00000	-0.00858
0.00000	-0.00777
0.00000	-0.00455
0.00000	-0.00858
0.00000	-0.00794
0.00000	-0.00987
0.00000	-0.00906
0.00000	-0.00681
0.00000	-0.00842
0.00000	-0.01083
0.00000	-0.00922
0.00000	-0.00826
0.00000	-0.00681
0.00000	-0.00632
0.00000	-0.00745
0.00000	-0.00971
0.00000	-0.00649
0.00000	-0.00584
0.00000	-0.00665
0.00000	-0.00794
0.00000	-0.00230
0.00000	-0.00858
0.00000	-0.00713
0.00000	-0.00713
0.00000	-0.00584
0.00000	-0.00439
0.00000	-0.00616
0.00000	-0.00987
0.00000	-0.00922
0.00000	-0.00987
0.00000	-0.00681
0.00000	-0.00552
0.00000	-0.00810
0.00000	-0.00246
0.00000	-0.00552
0.00000	-0.01003
0.00000	-0.00616
0.00000	-0.00777
0.00000	-0.00616
0.00000	-0.00729
0.00000	-0.00987
0.00000	-0.00955
0.00000	-0.00794
0.00000	-0.01067
0.00000	-0.00504
0.00000	-0.00697
0.00000	-0.00665
0.00000	-0.00665
0.00000	-0.01051
0.00000	-0.00971
0.00000	-0.00649
0.00000	-0.00649
0.00000	-0.00810
0.00000	-0.00520
0.00000	-0.00842
0.00000	-0.00842
0.00000	-0.00665
0.00000	-0.00407
0.00000	-0.00729
0.00000	-0.00600
0.00000	-0.00858
0.00000	-0.00552
0.00000	-0.00729
0.00000	-0.00922
0.01033	-0.00552
0.01033	-0.01051
0.01033	-0.00632
0.01033	-0.01003
0.01033	-0.00552
0.01033	-0.00375
0.01033	-0.00568
0.01033	-0.00794
0.01033	-0.00310
0.01033	-0.00552
0.01033	-0.00649
0.01033	-0.00826
0.02067	-0.00794
0.02067	-0.01083
0.02067	-0.00729
0.02067	-0.00729
0.02067	-0.01035
0.02067	-0.00874
0.02067	-0.00665
0.02067	-0.00906
0.02067	-0.00794
0.02067	-0.01100
0.02067	-0.00713
0.02067	-0.01051
0.02067	-0.00375
0.02067	-0.01100
0.02067	-0.00842
0.02067	-0.00197
0.02067	-0.01212
0.05167	-0.00536
0.09300	-0.00794
0.10333	-0.00890
0.19633	-0.00552
0.24799	-0.01357
0.28932	-0.00938
0.45465	-0.01132
0.56832	-0.00826
0.61998	-0.00649
0.74398	-0.00681
0.85764	-0.00632
0.91964	-0.00922
1.09530	-0.00874
1.18830	-0.00810
1.22963	-0.00471
1.33296	-0.00858
1.38462	-0.00761
1.41562	-0.00938
1.50862	-0.00858
1.58095	-0.00971
1.61195	-0.00906
1.73595	-0.00922
1.82894	-0.01003
1.85994	-0.00665
2.04594	-0.00971
2.15960	-0.00616
2.24226	-0.00632
2.37659	-0.00632
2.47992	-0.00681
2.54192	-0.00777
2.71758	-0.01212
2.86224	-0.01051
2.92424	-0.00487
3.11024	-0.00697
3.26523	-0.01003
3.34790	-0.00632
3.55456	-0.00890
3.68889	-0.01019
3.73022	-0.00697
3.93688	-0.00826
4.05054	-0.01164
4.11254	-0.00810
4.24687	-0.00584
4.32953	-0.00777
4.37086	-0.00504
4.51553	-0.00455
4.60852	-0.00761
4.67052	-0.00761
4.81518	-0.00729
4.88751	-0.01003
4.93918	-0.00423
5.08384	-0.00552
5.19751	-0.00681
5.23884	-0.00342
5.34217	-0.00874
5.44550	-0.00826
5.47650	-0.00729
5.61083	-0.00520
5.70382	-0.01003
5.73482	-0.00407
5.85882	-0.00616
5.93115	-0.01003
5.97248	-0.01164
6.09648	-0.00729
6.18947	-0.00584
6.24114	-0.00777
6.38580	-0.00858
6.49946	-0.00810
6.53046	-0.00729
6.67513	-0.00794
6.76812	-0.00632
6.80946	-0.01035
6.93345	-0.00632
7.06778	-0.00584
7.10911	-0.00810
7.22278	-0.00987
7.32611	-0.01067
7.37777	-0.00906
7.52243	-0.00616
7.60510	-0.00745
7.63610	-0.00987
7.77043	-0.00810
7.87376	-0.00745
7.91509	-0.00826
8.08042	-0.00649
8.17341	-0.00520
8.21474	-0.00423
8.34907	-0.00777
8.43174	-0.00423
8.48340	-0.00987
8.61773	-0.00616
8.71073	-0.01003
8.74173	-0.00729
8.87606	-0.00729
8.95872	-0.00681
9.01039	-0.00536
9.15505	-0.00504
9.22738	-0.00842
9.27905	-0.01051
9.37204	-0.00858
9.44437	-0.00568
9.48571	-0.00794
9.60970	-0.00536
9.70270	-0.00665
9.74403	-0.00439
9.89903	-0.00697
9.99202	-0.00600
10.05402	-0.01003
10.19868	-0.00777
10.25035	-0.00890
10.29168	-0.00874
10.40534	-0.00632
10.48801	-0.00616
10.52934	-0.00955
10.64300	-0.00568
10.71533	-0.00745
10.75667	-0.00423
10.84966	-0.01003
10.93233	-0.00858
10.97366	-0.01083
11.08732	-0.00745
11.18032	-0.00955
11.21132	-0.00955
11.30432	-0.00810
11.34565	-0.00536
11.36631	-0.00616
11.42831	-0.00745
11.46964	-0.00359
11.47998	-0.00761
11.53164	-0.00665
11.56264	-0.00794
11.58331	-0.00697
11.64530	-0.00616
11.68664	-0.00938
11.69697	-0.00697
11.72797	-0.00810
11.74864	-0.01180
11.75897	-0.00745
11.76930	-0.00649
11.76930	-0.00326
11.76930	-0.00568
11.76930	-0.00552
11.76930	-0.00681
11.76930	-0.00455
11.76930	-0.00504
11.76930	-0.00729
11.76930	-0.00471
11.76930	-0.00777
11.76930	-0.00455
11.76930	-0.00810
11.76930	-0.01325
11.76930	-0.00487
11.76930	-0.00471
11.76930	-0.00439
11.76930	-0.00455
11.77963	-0.00681
11.77963	-0.00439
11.80030	-0.01067
11.81063	-0.00794
11.86230	-0.00922
11.89330	-0.00681
11.90363	-0.00794
11.96563	-0.00665
12.01729	-0.01019
12.03796	-0.00826
12.07929	-0.01003
12.14129	-0.00504
12.17229	-0.00665
12.25495	-0.00487
12.32728	-0.01003
12.34795	-0.01003
12.48228	-0.00938
12.52361	-0.00681
12.56494	-0.00616
12.67861	-0.00842
12.74060	-0.00536
12.77160	-0.00955
12.85427	-0.00794
12.93693	-0.00407
12.96793	-0.00971
13.07126	-0.00471
13.12293	-0.01083
13.15392	-0.00584
13.21592	-0.00536
13.25725	-0.00761
13.26759	-0.00359
13.33992	-0.01051
13.39158	-0.00874
13.41225	-0.00278
13.48458	-0.00616
13.51558	-0.00487
13.52591	-0.00568
13.56725	-0.00729
13.59824	-0.00471
13.61891	-0.00181
13.66024	-0.00616
13.68091	-0.00729
13.69124	-0.00407
13.73257	-0.00600
13.76357	-0.00552
13.78424	-0.00600
13.84624	-0.00471
13.89790	-0.00842
13.91857	-0.00681
14.00123	-0.00649
14.06323	-0.00713
14.09423	-0.00938
14.22856	-0.00423
14.30089	-0.00616
14.33189	-0.00729
14.41455	-0.00616
14.44555	-0.00487
14.45588	-0.00713
14.48688	-0.00922
14.49722	-0.00391
14.50755	-0.00439
14.50755	-0.00326
14.51788	-0.00729
14.51788	-0.00552
14.51788	-0.00214
14.51788	-0.00649
14.52822	-0.00439
14.53855	-0.00665
14.55921	-0.00906
14.56955	-0.00616
14.61088	-0.00487
14.64188	-0.00761
14.65221	-0.00342
14.69354	-0.00455
14.70388	-0.00471
14.70388	-0.00697
14.70388	-0.00810
14.70388	-0.00761
14.70388	-0.00987
14.70388	-0.01083
14.71421	-0.00423
14.71421	-0.00697
14.71421	-0.00536
14.72454	-0.00230
14.74521	-0.00552
14.75554	-0.00810
14.76587	-0.00600
14.76587	-0.00858
14.76587	-0.00616
14.76587	-0.00407
14.76587	-0.00761
14.76587	-0.00649
14.76587	-0.00874
14.76587	-0.00552
14.77621	-0.00600
14.77621	-0.00697
14.80721	-0.00987
14.81754	-0.00794
14.83821	-0.00310
14.83821	-0.00455
14.85887	-0.00552
14.88987	-0.00552
14.91054	-0.00375
14.93120	-0.00375
14.97253	-0.00600
14.98287	-0.01019
14.99320	-0.00439
15.03453	-0.00616
15.07586	-0.01019
15.09653	-0.00197
15.15853	-0.00536
15.18953	-0.00487
15.21019	-0.00842
15.29286	-0.00632
15.34452	-0.00729
15.37552	-0.00439
15.45819	-0.00745
15.50985	-0.00600
15.54085	-0.00632
15.62351	-0.01003
15.67518	-0.00439
15.70618	-0.00568
15.77851	-0.00761
15.84051	-0.00761
15.86117	-0.00890
15.91284	-0.00391
15.94384	-0.00520
15.95417	-0.00214
16.00584	-0.00987
16.04717	-0.00665
16.06783	-0.00890
16.12983	-0.00278
16.17116	-0.00520
16.20216	-0.00504
16.28483	-0.00568
16.35716	-0.00729
16.38816	-0.00359
16.48115	-0.00729
16.55349	-0.00342
16.58448	-0.00504
16.65682	-0.00439
16.70848	-0.00616
16.73948	-0.00810
16.83248	-0.00487
16.87381	-0.00665
16.88414	-0.00649
16.89448	-0.00326
16.90481	-0.00117
16.92547	-0.00375
17.03914	-0.00552
17.13213	-0.00455
17.16313	-0.00359
17.32846	-0.00375
17.44212	-0.00391
17.54545	-0.00471
17.79345	-0.00278
17.95878	-0.00085
18.04144	-0.00439
18.27910	-0.00197
18.38243	-0.00020
18.42376	-0.00181
18.53742	-0.00230
18.59942	-0.00036
18.62009	0.00012
18.68209	0.00511
18.72342	0.00576
18.75442	0.00366
18.85775	0.00608
18.91975	0.00544
18.97141	0.00560
19.13674	0.00366
19.21940	0.01172
19.27107	0.00962
19.41573	0.01075
19.47773	0.01285
19.50873	0.01446
19.57073	0.01993
19.60172	0.02138
19.64306	0.02010
19.75672	0.02654
19.80838	0.02493
19.82905	0.03089
19.89105	0.03169
19.94271	0.03379
19.99438	0.03089
20.08738	0.03991
20.14937	0.04056
20.18037	0.04587
20.29404	0.04748
20.34570	0.05006
20.37670	0.05151
20.44903	0.05650
20.46970	0.06730
20.48003	0.06553
20.50070	0.07616
20.52136	0.07729
20.54203	0.07390
20.59369	0.08276
20.63503	0.08711
20.64536	0.09291
20.72802	0.09710
20.75902	0.10097
20.80035	0.10354
20.87268	0.11466
20.90368	0.11853
20.92435	0.12513
20.96568	0.13834
20.97602	0.14414
20.98635	0.14704
21.01735	0.15751
21.04835	0.15928
21.08968	0.16766
21.16201	0.17668
21.20334	0.18780
21.25501	0.19811
21.33767	0.21583
21.38934	0.21905
21.44100	0.23081
21.52366	0.26142
21.57533	0.27237
21.61666	0.28478
21.68899	0.31313
21.71999	0.33166
21.74066	0.34841
21.76132	0.37225
21.77166	0.38401
21.77166	0.38627
21.79232	0.40496
21.82332	0.41511
21.85432	0.42397
21.89565	0.43089
21.98865	0.45377
22.02998	0.46907
22.06098	0.48148
22.12298	0.50548
22.15398	0.51354
22.17464	0.52175
22.25731	0.54350
22.29864	0.55413
22.32964	0.56493
22.40197	0.57653
22.43297	0.58539
22.47430	0.59006
22.56730	0.60295
22.61896	0.60134
22.64996	0.60585
22.74296	0.60617
22.78429	0.60520
22.80496	0.60053
22.86696	0.59763
22.92895	0.58780
22.94962	0.58764
23.02195	0.57024
23.07362	0.56251
23.09428	0.55623
23.15628	0.53899
23.20795	0.52659
23.23894	0.51595
23.32161	0.49259
23.36294	0.47681
23.38361	0.46408
23.45594	0.44443
23.49727	0.42703
23.51794	0.41656
23.55927	0.39529
23.60060	0.37387
23.62127	0.36758
23.67293	0.35099
23.70393	0.33407
23.71426	0.32538
23.77626	0.30524
23.82793	0.28993
23.84859	0.28881
23.92092	0.26625
23.98292	0.24869
24.00359	0.24805
24.11725	0.22662
24.16892	0.21019
24.21025	0.19714
24.31358	0.17153
24.37558	0.16154
24.40658	0.15203
24.48924	0.13093
24.54090	0.11998
24.56157	0.11192
24.64423	0.09646
24.68557	0.08502
24.71657	0.07584
24.75790	0.06585
24.80956	0.06053
24.84056	0.05457
24.90256	0.04925
24.94389	0.03959
24.96456	0.03314
25.00589	0.02928
25.06789	0.02477
25.08855	0.02509
25.16089	0.02251
25.22288	0.01929
25.23322	0.01720
25.30555	0.01526
25.33655	0.00753
25.35721	0.00946
25.41921	0.00801
25.46054	0.00834
25.47088	0.00624
25.52254	0.00801
25.53287	0.00527
25.54321	0.00527
25.54321	0.00527
25.55354	0.00705
25.55354	0.00334
25.55354	0.00109
25.55354	0.00125
25.55354	-0.00391
25.55354	-0.00181
25.55354	-0.00117
25.55354	0.00060
25.55354	0.00012
25.55354	-0.00004
25.56387	0.00076
25.56387	0.00093
25.56387	-0.00214
25.56387	0.00318
25.56387	0.00383
25.56387	0.00109
25.56387	-0.00230
25.56387	-0.00069
25.56387	-0.00520
25.56387	-0.00407
25.57421	-0.00246
25.58454	-0.00149
25.58454	-0.00197
25.58454	-0.00294
25.60520	-0.00214
25.62587	-0.00149
25.64654	-0.00455
25.65687	-0.00520
25.69820	0.00012
25.71887	-0.00085
25.72920	-0.00455
25.76020	-0.00197
25.78087	-0.00181
25.79120	-0.00649
25.82220	-0.00197
25.85320	-0.00117
25.86353	-0.00552
25.90486	-0.00359
25.94619	-0.00036
25.96686	-0.00133
26.03919	-0.00391
26.10119	-0.00520
26.11152	-0.00391
26.17352	-0.00214
26.22519	-0.00262
26.24585	-0.00342
26.29752	-0.00487
26.32852	-0.00214
26.34918	-0.00278
26.38018	-0.00616
26.40085	-0.00020
26.42151	-0.00294
26.44218	-0.00117
26.47318	-0.00552
26.48351	-0.00504
26.51451	-0.00471
26.54551	-0.00407
26.56617	-0.00391
26.61784	-0.00439
26.66950	-0.00665
26.69017	-0.00375
26.77283	-0.00471
26.83483	-0.00342
26.85550	-0.00439
26.96916	-0.00197
27.03116	-0.00310
27.06216	-0.00214
27.16549	-0.00681
27.23782	-0.00729
27.26882	-0.00133
27.35148	-0.00536
27.40315	-0.00085
27.41348	-0.00777
27.49615	-0.00520
27.53748	-0.00181
27.55814	-0.00794
27.62014	-0.00600
27.66147	-0.00552
27.68214	-0.00423
27.74414	-0.00423
27.77514	-0.00487
27.78547	-0.00471
27.81647	-0.00149
27.83714	-0.00697
27.85780	-0.00487
27.90947	-0.00471
27.96113	-0.00439
27.98180	-0.00520
28.03346	-0.00681
28.08513	-0.00391
28.10579	-0.00310
28.15746	-0.00471
28.20912	-0.00874
28.22979	-0.00181
28.27112	-0.00439
28.29179	-0.00552
28.30212	-0.00375
28.31245	-0.00310
28.31245	-0.00681
28.31245	-0.00955
28.32279	-0.00600
28.34345	-0.00729
28.40545	-0.00729
28.44678	-0.00842
28.66378	-0.00584
28.80844	-0.00842
28.90144	-0.00149
29.14943	-0.00471
29.34575	-0.00729
29.42842	-0.00487
29.75908	-0.00745
29.92440	-0.00713
30.00707	-0.00826